Wavelength,Intensity
350,135.2
355,136.8
360,142.1
365,155.3
370,180.7
375,220.4
380,195.2
385,172.8
390,158.3
395,165.7
400,520.8
405,485.2
410,425.6
415,368.9
420,325.4
425,285.1
430,248.7
435,215.3
440,188.9
445,165.2
450,148.7